# Total cross section of inelastic gamma-neutron interactions from Sophia
# photon energy E [GeV]    cross section [mu b]
0.150053	0.00945467
0.150919	0.127083
0.15179	0.243883
0.152667	1.80461
0.153548	4.27025
0.154435	6.96595
0.155326	9.80393
0.156223	12.7395
0.157125	15.7448
0.158032	18.8004
0.158944	21.892
0.159862	25.0086
0.160785	28.1415
0.161713	31.2837
0.162646	34.4297
0.163585	37.5746
0.16453	40.7147
0.16548	43.8466
0.166435	46.9677
0.167396	50.0758
0.168362	53.1689
0.169334	56.2457
0.170312	59.3048
0.171295	62.3453
0.172284	65.3665
0.173278	68.3678
0.174279	71.3489
0.175285	74.3096
0.176297	77.2499
0.177315	80.1697
0.178338	83.0695
0.179368	85.9494
0.180403	88.8099
0.181445	91.6517
0.182492	94.4753
0.183546	97.2815
0.184605	100.071
0.185671	102.845
0.186743	105.604
0.187821	108.35
0.188905	111.084
0.189996	113.806
0.191093	116.518
0.192196	119.222
0.193306	121.919
0.194422	124.611
0.195544	127.3
0.196673	129.986
0.197808	132.672
0.19895	135.36
0.200099	138.052
0.201254	140.749
0.202416	143.455
0.203584	146.171
0.20476	148.9
0.205942	151.644
0.207131	154.406
0.208326	157.189
0.209529	159.994
0.210739	162.826
0.211955	165.687
0.213179	168.581
0.21441	171.51
0.215648	174.477
0.216892	177.487
0.218145	180.542
0.219404	183.647
0.220671	186.805
0.221945	190.02
0.223226	193.295
0.224515	196.636
0.225811	200.045
0.227114	203.526
0.228425	207.085
0.229744	210.725
0.23107	214.45
0.232404	218.264
0.233746	222.172
0.235096	226.178
0.236453	230.285
0.237818	234.498
0.239191	238.821
0.240572	243.257
0.241961	247.809
0.243357	252.481
0.244762	257.277
0.246175	262.198
0.247596	267.249
0.249026	272.43
0.250464	277.743
0.251909	283.192
0.253364	288.776
0.254826	294.496
0.256298	300.353
0.257777	306.346
0.259265	312.475
0.260762	318.739
0.262268	325.136
0.263782	331.664
0.265304	338.32
0.266836	345.101
0.268376	352.003
0.269926	359.022
0.271484	366.152
0.273051	373.388
0.274628	380.724
0.276213	388.154
0.277808	395.669
0.279412	403.261
0.281025	410.923
0.282647	418.645
0.284279	426.416
0.28592	434.226
0.287571	442.063
0.289231	449.915
0.290901	457.768
0.29258	465.607
0.294269	473.418
0.295968	481.182
0.297676	488.881
0.299395	496.497
0.301123	504.007
0.302862	511.388
0.30461	518.617
0.306369	525.666
0.308137	532.509
0.309916	539.115
0.311706	545.453
0.313505	551.49
0.315315	557.194
0.317135	562.528
0.318966	567.459
0.320807	571.949
0.32266	574.179
0.324522	572.634
0.326396	570.518
0.32828	567.82
0.330175	564.532
0.332081	560.649
0.333998	556.172
0.335927	551.106
0.337866	545.461
0.339817	539.253
0.341778	532.501
0.343751	525.232
0.345736	517.475
0.347732	509.264
0.349739	500.639
0.351758	491.64
0.353789	482.311
0.355832	472.7
0.357886	462.854
0.359952	452.82
0.36203	442.647
0.36412	432.382
0.366222	422.071
0.368336	411.758
0.370463	401.482
0.372601	391.283
0.374752	381.195
0.376916	371.25
0.379092	361.474
0.38128	351.891
0.383482	342.522
0.385695	333.382
0.387922	324.485
0.390162	315.839
0.392414	307.45
0.394679	299.323
0.396958	291.458
0.39925	283.854
0.401554	277.485
0.403873	271.807
0.406204	266.337
0.408549	261.067
0.410908	255.992
0.41328	251.105
0.415666	246.398
0.418066	241.864
0.420479	237.497
0.422907	233.29
0.425348	229.237
0.427804	225.332
0.430273	221.569
0.432757	217.944
0.435256	214.451
0.437768	211.088
0.440296	207.85
0.442838	204.734
0.445394	201.737
0.447965	198.855
0.450552	196.086
0.453153	193.427
0.455769	190.876
0.4584	188.43
0.461046	186.087
0.463708	183.843
0.466385	181.697
0.469077	179.646
0.471785	177.688
0.474509	175.819
0.477248	174.037
0.480004	172.341
0.482775	170.726
0.485562	169.192
0.488365	167.735
0.491184	166.353
0.49402	165.045
0.496872	163.808
0.49974	162.639
0.502625	162.825
0.505527	163.21
0.508446	163.664
0.511381	164.185
0.514333	164.773
0.517302	165.426
0.520289	166.144
0.523292	166.924
0.526313	167.768
0.529352	168.674
0.532408	169.383
0.535482	170.075
0.538573	170.819
0.541682	171.615
0.544809	172.461
0.547954	173.358
0.551118	174.306
0.554299	175.304
0.557499	176.353
0.560718	177.453
0.563955	178.604
0.567211	179.807
0.570485	181.063
0.573779	182.373
0.577091	183.737
0.580423	185.157
0.583774	186.634
0.587144	188.17
0.590533	189.766
0.593943	191.424
0.597371	193.145
0.60082	194.544
0.604289	194.757
0.607777	195.035
0.611286	195.381
0.614815	195.799
0.618364	196.291
0.621934	196.861
0.625525	197.512
0.629136	198.249
0.632768	199.075
0.636421	199.994
0.640095	201.01
0.64379	202.128
0.647507	203.352
0.651245	204.686
0.655005	206.133
0.658786	207.698
0.662589	209.382
0.666415	211.189
0.670262	213.118
0.674131	215.17
0.678023	217.342
0.681937	219.631
0.685874	222.029
0.689834	224.525
0.693816	227.107
0.697822	229.755
0.70185	232.447
0.705902	235.154
0.709977	237.841
0.714076	240.468
0.718198	242.99
0.722345	245.354
0.726515	247.507
0.730709	249.389
0.734927	250.943
0.73917	252.112
0.743438	252.843
0.747729	253.091
0.752046	252.824
0.756388	252.018
0.760754	250.667
0.765146	248.781
0.769564	246.382
0.774006	243.51
0.778475	240.216
0.782969	236.559
0.787489	232.606
0.792035	228.426
0.796608	224.088
0.801207	219.658
0.805832	215.194
0.810484	210.751
0.815163	206.374
0.819869	202.099
0.824602	197.957
0.829363	193.97
0.834151	190.153
0.838966	186.517
0.84381	183.067
0.848681	179.805
0.85358	177.163
0.858508	174.864
0.863464	172.741
0.868449	170.787
0.873463	168.994
0.878505	167.354
0.883577	165.858
0.888678	164.498
0.893808	163.264
0.898969	162.149
0.904158	161.143
0.909378	160.239
0.914628	159.429
0.919908	158.705
0.925219	158.06
0.93056	157.486
0.935932	156.977
0.941336	156.525
0.94677	156.125
0.952236	155.769
0.957733	155.451
0.963262	155.166
0.968823	154.906
0.974416	154.666
0.980042	154.441
0.985699	154.224
0.99139	154.011
0.997113	153.796
1.00287	153.575
1.00866	153.343
1.01448	153.098
1.02034	152.836
1.02623	152.554
1.03215	152.251
1.03811	151.927
1.04411	151.579
1.05013	151.21
1.0562	150.82
1.06229	150.41
1.06843	149.981
1.07459	149.536
1.0808	149.077
1.08704	148.606
1.09331	148.126
1.09962	147.639
1.10597	147.147
1.11236	146.653
1.11878	146.159
1.12524	145.667
1.13173	145.18
1.13827	144.698
1.14484	144.224
1.15145	143.76
1.1581	143.307
1.16478	142.866
1.17151	142.439
1.17827	142.028
1.18507	141.632
1.19191	141.253
1.19879	140.893
1.20571	140.551
1.21268	140.228
1.21968	139.925
1.22672	139.642
1.2338	139.379
1.24092	139.137
1.24809	138.916
1.25529	138.715
1.26254	138.535
1.26983	138.376
1.27716	138.236
1.28453	138.116
1.29195	138.016
1.2994	137.934
1.30691	137.87
1.31445	137.823
1.32204	137.793
1.32967	137.778
1.33735	137.778
1.34507	137.791
1.35283	137.817
1.36064	137.853
1.3685	137.899
1.3764	137.952
1.38435	138.012
1.39234	138.077
1.40038	138.145
1.40846	138.214
1.41659	138.283
1.42477	138.349
1.43299	138.41
1.44127	138.464
1.44959	138.51
1.45796	138.545
1.46637	138.568
1.47484	138.576
1.48335	138.568
1.49192	138.541
1.50053	138.495
1.50919	138.428
1.5179	138.339
1.52667	138.227
1.53548	138.091
1.54435	137.93
1.55326	137.746
1.56223	137.537
1.57125	137.305
1.58032	137.05
1.58944	136.773
1.59862	136.475
1.60785	136.158
1.61713	135.823
1.62646	135.473
1.63585	135.108
1.6453	134.732
1.6548	134.346
1.66435	133.952
1.67396	133.552
1.68362	133.148
1.69334	132.741
1.70312	132.335
1.71295	131.93
1.72284	131.527
1.73278	131.129
1.74279	130.737
1.75285	130.351
1.76297	129.972
1.77315	129.602
1.78338	129.241
1.79368	128.89
1.80403	128.548
1.81445	128.217
1.82492	127.897
1.83546	127.588
1.84605	127.289
1.85671	127.002
1.86743	126.725
1.87821	126.459
1.88905	126.204
1.89996	125.959
1.91093	125.725
1.92196	125.5
1.93306	125.285
1.94422	125.08
1.95544	124.883
1.96673	124.695
1.97808	124.516
1.9895	124.345
2.00099	124.182
2.01254	124.026
2.02416	123.877
2.03584	123.736
2.0476	123.6
2.05942	123.471
2.07131	123.348
2.08326	123.231
2.09529	123.119
2.10739	123.012
2.11955	122.91
2.13179	122.813
2.1441	122.72
2.15648	122.631
2.16892	122.546
2.18145	122.464
2.19404	122.386
2.20671	122.312
2.21945	122.24
2.23226	122.171
2.24515	122.106
2.25811	122.042
2.27114	121.981
2.28425	121.923
2.29744	121.866
2.3107	121.811
2.32404	121.759
2.33746	121.707
2.35096	121.658
2.36453	121.61
2.37818	121.563
2.39191	121.518
2.40572	121.474
2.41961	121.43
2.43357	121.388
2.44762	121.347
2.46175	121.306
2.47596	121.266
2.49026	121.227
2.50464	121.189
2.51909	121.151
2.53364	121.113
2.54826	121.076
2.56298	121.039
2.57777	121.003
2.59265	120.967
2.60762	120.931
2.62268	120.895
2.63782	120.859
2.65304	120.823
2.66836	120.788
2.68376	120.752
2.69926	120.717
2.71484	120.681
2.73051	120.645
2.74628	120.609
2.76213	120.573
2.77808	120.537
2.79412	120.501
2.81025	120.464
2.82647	120.427
2.84279	120.39
2.8592	120.353
2.87571	120.315
2.89231	120.277
2.90901	120.239
2.9258	120.201
2.94269	120.162
2.95968	120.123
2.97676	120.083
2.99395	120.044
3.01123	120.003
3.02862	119.963
3.0461	119.922
3.06369	119.881
3.08137	119.839
3.09916	119.797
3.11706	119.755
3.13505	119.712
3.15315	119.669
3.17135	119.626
3.18966	119.582
3.20807	119.537
3.2266	119.493
3.24522	119.448
3.26396	119.402
3.2828	119.357
3.30175	119.311
3.32081	119.264
3.33998	119.217
3.35927	119.17
3.37866	119.123
3.39817	119.075
3.41778	119.027
3.43751	118.978
3.45736	118.929
3.47732	118.88
3.49739	118.831
3.51758	118.781
3.53789	118.731
3.55832	118.681
3.57886	118.63
3.59952	118.579
3.6203	118.528
3.6412	118.476
3.66222	118.425
3.68336	118.373
3.70463	118.321
3.72601	118.268
3.74752	118.216
3.76916	118.163
3.79092	118.11
3.8128	118.057
3.83482	118.003
3.85695	117.95
3.87922	117.896
3.90162	117.842
3.92414	117.788
3.94679	117.734
3.96958	117.679
3.9925	117.625
4.01554	117.57
4.03873	117.516
4.06204	117.461
4.08549	117.406
4.10908	117.351
4.1328	117.296
4.15666	117.241
4.18066	117.186
4.20479	117.131
4.22907	117.075
4.25348	117.02
4.27804	116.965
4.30273	116.909
4.32757	116.854
4.35256	116.799
4.37768	116.743
4.40296	116.688
4.42838	116.633
4.45394	116.577
4.47965	116.522
4.50552	116.467
4.53153	116.412
4.55769	116.357
4.584	116.302
4.61046	116.247
4.63708	116.192
4.66385	116.137
4.69077	116.082
4.71785	116.028
4.74509	115.973
4.77248	115.919
4.80004	115.865
4.82775	115.811
4.85562	115.756
4.88365	115.703
4.91184	115.649
4.9402	115.595
4.96872	115.542
4.9974	115.488
5.02625	115.435
5.05527	115.382
5.08446	115.329
5.11381	115.277
5.14333	115.224
5.17302	115.172
5.20289	115.12
5.23292	115.068
5.26313	115.016
5.29352	114.964
5.32408	114.913
5.35482	114.862
5.38573	114.811
5.41682	114.76
5.44809	114.71
5.47954	114.659
5.51118	114.609
5.54299	114.559
5.57499	114.51
5.60718	114.46
5.63955	114.411
5.67211	114.362
5.70485	114.313
5.73779	114.265
5.77091	114.217
5.80423	114.169
5.83774	114.121
5.87144	114.073
5.90533	114.026
5.93943	113.979
5.97371	113.932
6.0082	113.886
6.04289	113.839
6.07777	113.793
6.11286	113.748
6.14815	113.702
6.18364	113.657
6.21934	113.612
6.25525	113.567
6.29136	113.522
6.32768	113.478
6.36421	113.434
6.40095	113.391
6.4379	113.347
6.47507	113.304
6.51245	113.261
6.55005	113.218
6.58786	113.176
6.62589	113.134
6.66415	113.092
6.70262	113.05
6.74131	113.009
6.78023	112.968
6.81937	112.927
6.85874	112.886
6.89834	112.846
6.93816	112.806
6.97822	112.766
7.0185	112.727
7.05902	112.687
7.09977	112.648
7.14076	112.61
7.18198	112.571
7.22345	112.533
7.26515	112.495
7.30709	112.457
7.34927	112.42
7.3917	112.383
7.43438	112.346
7.47729	112.309
7.52046	112.273
7.56388	112.237
7.60754	112.201
7.65146	112.165
7.69564	112.13
7.74006	112.095
7.78475	112.06
7.82969	112.025
7.87489	111.991
7.92035	111.956
7.96608	111.923
8.01207	111.889
8.05832	111.855
8.10484	111.822
8.15163	111.789
8.19869	111.757
8.24602	111.724
8.29363	111.692
8.34151	111.66
8.38966	111.628
8.4381	111.597
8.48681	111.566
8.5358	111.535
8.58508	111.504
8.63464	111.473
8.68449	111.443
8.73463	111.413
8.78505	111.383
8.83577	111.354
8.88678	111.324
8.93808	111.295
8.98969	111.266
9.04158	111.237
9.09378	111.209
9.14628	111.181
9.19908	111.153
9.25219	111.125
9.3056	111.097
9.35932	111.07
9.41336	111.043
9.4677	111.016
9.52236	110.989
9.57733	110.963
9.63262	110.936
9.68823	110.91
9.74416	110.884
9.80042	110.859
9.85699	110.833
9.9139	110.808
9.97113	110.783
10.0287	110.139
10.0866	110.122
10.1448	110.104
10.2034	110.087
10.2623	110.07
10.3215	110.053
10.3811	110.036
10.4411	110.019
10.5013	110.002
10.562	109.986
10.6229	109.969
10.6843	109.953
10.7459	109.937
10.808	109.921
10.8704	109.905
10.9331	109.889
10.9962	109.873
11.0597	109.858
11.1236	109.843
11.1878	109.827
11.2524	109.812
11.3173	109.797
11.3827	109.782
11.4484	109.767
11.5145	109.753
11.581	109.738
11.6478	109.724
11.7151	109.71
11.7827	109.695
11.8507	109.681
11.9191	109.667
11.9879	109.654
12.0571	109.64
12.1268	109.626
12.1968	109.613
12.2672	109.6
12.338	109.587
12.4092	109.574
12.4809	109.561
12.5529	109.548
12.6254	109.535
12.6983	109.523
12.7716	109.51
12.8453	109.498
12.9195	109.486
12.994	109.474
13.0691	109.462
13.1445	109.45
13.2204	109.438
13.2967	109.427
13.3735	109.415
13.4507	109.404
13.5283	109.393
13.6064	109.382
13.685	109.371
13.764	109.36
13.8435	109.349
13.9234	109.339
14.0038	109.328
14.0846	109.318
14.1659	109.308
14.2477	109.297
14.3299	109.287
14.4127	109.278
14.4959	109.268
14.5796	109.258
14.6637	109.249
14.7484	109.239
14.8335	109.23
14.9192	109.221
15.0053	109.212
15.0919	109.203
15.179	109.194
15.2667	109.186
15.3548	109.177
15.4435	109.169
15.5326	109.16
15.6223	109.152
15.7125	109.144
15.8032	109.136
15.8944	109.129
15.9862	109.121
16.0785	109.113
16.1713	109.106
16.2646	109.099
16.3585	109.091
16.453	109.084
16.548	109.077
16.6435	109.07
16.7396	109.064
16.8362	109.057
16.9334	109.051
17.0312	109.044
17.1295	109.038
17.2284	109.032
17.3278	109.026
17.4279	109.02
17.5285	109.014
17.6297	109.008
17.7315	109.003
17.8338	108.997
17.9368	108.992
18.0403	108.987
18.1445	108.982
18.2492	108.977
18.3546	108.972
18.4605	108.967
18.5671	108.963
18.6743	108.958
18.7821	108.954
18.8905	108.949
18.9996	108.945
19.1093	108.941
19.2196	108.937
19.3306	108.934
19.4422	108.93
19.5544	108.926
19.6673	108.923
19.7808	108.919
19.895	108.916
20.0099	108.913
20.1254	108.91
20.2416	108.907
20.3584	108.905
20.476	108.902
20.5942	108.899
20.7131	108.897
20.8326	108.895
20.9529	108.892
21.0739	108.89
21.1955	108.888
21.3179	108.887
21.441	108.885
21.5648	108.883
21.6892	108.882
21.8145	108.88
21.9404	108.879
22.0671	108.878
22.1945	108.877
22.3226	108.876
22.4515	108.875
22.5811	108.874
22.7114	108.874
22.8425	108.873
22.9744	108.873
23.107	108.872
23.2404	108.872
23.3746	108.872
23.5096	108.872
23.6453	108.873
23.7818	108.873
23.9191	108.873
24.0572	108.874
24.1961	108.874
24.3357	108.875
24.4762	108.876
24.6175	108.877
24.7596	108.878
24.9026	108.879
25.0464	108.88
25.1909	108.882
25.3364	108.883
25.4826	108.885
25.6298	108.887
25.7777	108.889
25.9265	108.891
26.0762	108.893
26.2268	108.895
26.3782	108.897
26.5304	108.899
26.6836	108.902
26.8376	108.905
26.9926	108.907
27.1484	108.91
27.3051	108.913
27.4628	108.916
27.6213	108.919
27.7808	108.923
27.9412	108.926
28.1025	108.929
28.2647	108.933
28.4279	108.937
28.592	108.94
28.7571	108.944
28.9231	108.948
29.0901	108.953
29.258	108.957
29.4269	108.961
29.5968	108.966
29.7676	108.97
29.9395	108.975
30.1123	108.98
30.2862	108.984
30.461	108.989
30.6369	108.995
30.8137	109
30.9916	109.005
31.1706	109.01
31.3505	109.016
31.5315	109.022
31.7135	109.027
31.8966	109.033
32.0807	109.039
32.266	109.045
32.4522	109.051
32.6396	109.058
32.828	109.064
33.0175	109.07
33.2081	109.077
33.3998	109.084
33.5927	109.09
33.7866	109.097
33.9817	109.104
34.1778	109.111
34.3751	109.119
34.5736	109.126
34.7732	109.133
34.9739	109.141
35.1758	109.148
35.3789	109.156
35.5832	109.164
35.7886	109.172
35.9952	109.18
36.203	109.188
36.412	109.196
36.6222	109.205
36.8336	109.213
37.0463	109.222
37.2601	109.23
37.4752	109.239
37.6916	109.248
37.9092	109.257
38.128	109.266
38.3482	109.275
38.5695	109.284
38.7922	109.294
39.0162	109.303
39.2414	109.313
39.4679	109.322
39.6958	109.332
39.925	109.342
40.1554	109.352
40.3873	109.362
40.6204	109.372
40.8549	109.382
41.0908	109.393
41.328	109.403
41.5666	109.414
41.8066	109.425
42.0479	109.435
42.2907	109.446
42.5348	109.457
42.7804	109.468
43.0273	109.479
43.2757	109.491
43.5256	109.502
43.7768	109.514
44.0296	109.525
44.2838	109.537
44.5394	109.549
44.7965	109.56
45.0552	109.572
45.3153	109.584
45.5769	109.597
45.84	109.609
46.1046	109.621
46.3708	109.634
46.6385	109.646
46.9077	109.659
47.1785	109.672
47.4509	109.685
47.7248	109.698
48.0004	109.711
48.2775	109.724
48.5562	109.737
48.8365	109.75
49.1184	109.764
49.402	109.777
49.6872	109.791
49.974	109.805
50.2625	109.818
50.5527	109.832
50.8446	109.846
51.1381	109.861
51.4333	109.875
51.7302	109.889
52.0289	109.903
52.3292	109.918
52.6313	109.933
52.9352	109.947
53.2408	109.962
53.5482	109.977
53.8573	109.992
54.1682	110.007
54.4809	110.022
54.7954	110.037
55.1118	110.053
55.4299	110.068
55.7499	110.084
56.0718	110.099
56.3955	110.115
56.7211	110.131
57.0485	110.147
57.3779	110.163
57.7091	110.179
58.0423	110.195
58.3774	110.212
58.7144	110.228
59.0533	110.245
59.3943	110.261
59.7371	110.278
60.082	110.295
60.4289	110.311
60.7777	110.328
61.1286	110.346
61.4815	110.363
61.8364	110.38
62.1934	110.397
62.5525	110.415
62.9136	110.432
63.2768	110.45
63.6421	110.468
64.0095	110.485
64.379	110.503
64.7507	110.521
65.1245	110.539
65.5005	110.557
65.8786	110.576
66.2589	110.594
66.6415	110.612
67.0262	110.631
67.4131	110.65
67.8023	110.668
68.1937	110.687
68.5874	110.706
68.9834	110.725
69.3816	110.744
69.7822	110.763
70.185	110.783
70.5902	110.802
70.9977	110.821
71.4076	110.841
71.8198	110.861
72.2345	110.88
72.6515	110.9
73.0709	110.92
73.4927	110.94
73.917	110.96
74.3438	110.98
74.7729	111
75.2046	111.021
75.6388	111.041
76.0754	111.062
76.5146	111.082
76.9564	111.103
77.4006	111.124
77.8475	111.145
78.2969	111.166
78.7489	111.187
79.2035	111.208
79.6608	111.229
80.1207	111.25
80.5832	111.272
81.0484	111.293
81.5163	111.315
81.9869	111.337
82.4602	111.358
82.9363	111.38
83.4151	111.402
83.8966	111.424
84.381	111.446
84.8681	111.469
85.358	111.491
85.8508	111.513
86.3464	111.536
86.8449	111.558
87.3463	111.581
87.8505	111.604
88.3577	111.626
88.8678	111.649
89.3808	111.672
89.8969	111.695
90.4158	111.719
90.9378	111.742
91.4628	111.765
91.9908	111.789
92.5219	111.812
93.056	111.836
93.5932	111.859
94.1336	111.883
94.677	111.907
95.2236	111.931
95.7733	111.955
96.3262	111.979
96.8823	112.003
97.4416	112.028
98.0042	112.052
98.5699	112.076
99.139	112.101
99.7113	112.126
100.287	112.15
100.866	112.175
101.448	112.2
102.034	112.225
102.623	112.25
103.215	112.275
103.811	112.3
104.411	112.326
105.013	112.351
105.62	112.376
106.229	112.402
106.843	112.428
107.459	112.453
108.08	112.479
108.704	112.505
109.331	112.531
109.962	112.557
110.597	112.583
111.236	112.609
111.878	112.636
112.524	112.662
113.173	112.689
113.827	112.715
114.484	112.742
115.145	112.768
115.81	112.795
116.478	112.822
117.151	112.849
117.827	112.876
118.507	112.903
119.191	112.93
119.879	112.958
120.571	112.985
121.268	113.013
121.968	113.04
122.672	113.068
123.38	113.095
124.092	113.123
124.809	113.151
125.529	113.179
126.254	113.207
126.983	113.235
127.716	113.263
128.453	113.292
129.195	113.32
129.94	113.348
130.691	113.377
131.445	113.406
132.204	113.434
132.967	113.463
133.735	113.492
134.507	113.521
135.283	113.55
136.064	113.579
136.85	113.608
137.64	113.637
138.435	113.667
139.234	113.696
140.038	113.725
140.846	113.755
141.659	113.785
142.477	113.814
143.299	113.844
144.127	113.874
144.959	113.904
145.796	113.934
146.637	113.964
147.484	113.994
148.335	114.025
149.192	114.055
150.053	114.086
150.919	114.116
151.79	114.147
152.667	114.177
153.548	114.208
154.435	114.239
155.326	114.27
156.223	114.301
157.125	114.332
158.032	114.363
158.944	114.394
159.862	114.426
160.785	114.457
161.713	114.488
162.646	114.52
163.585	114.552
164.53	114.583
165.48	114.615
166.435	114.647
167.396	114.679
168.362	114.711
169.334	114.743
170.312	114.775
171.295	114.807
172.284	114.84
173.278	114.872
174.279	114.904
175.285	114.937
176.297	114.97
177.315	115.002
178.338	115.035
179.368	115.068
180.403	115.101
181.445	115.134
182.492	115.167
183.546	115.2
184.605	115.233
