# Total cross section of inelastic gamma-proton interactions from Sophia
# photon energy E [GeV]    cross section [mu b]
0.151563	0.265723
0.152438	1.26808
0.153318	3.59997
0.154203	6.2027
0.155093	8.96379
0.155988	11.8314
0.156889	14.7744
0.157794	17.7714
0.158705	20.8071
0.159622	23.8698
0.160543	26.9501
0.16147	30.0408
0.162402	33.1357
0.16334	36.23
0.164283	39.3195
0.165231	42.4009
0.166185	45.4712
0.167144	48.5281
0.168109	51.5697
0.16908	54.5942
0.170056	57.6005
0.171038	60.5873
0.172025	63.554
0.173018	66.4999
0.174017	69.4245
0.175022	72.3275
0.176032	75.209
0.177048	78.0688
0.17807	80.9071
0.179098	83.7242
0.180132	86.5205
0.181172	89.2965
0.182218	92.0527
0.18327	94.7898
0.184328	97.5086
0.185392	100.21
0.186463	102.895
0.187539	105.564
0.188622	108.219
0.189711	110.86
0.190806	113.49
0.191907	116.109
0.193015	118.718
0.19413	121.32
0.19525	123.916
0.196378	126.507
0.197511	129.095
0.198651	131.682
0.199798	134.27
0.200952	136.861
0.202112	139.457
0.203279	142.059
0.204452	144.672
0.205633	147.296
0.20682	149.934
0.208014	152.589
0.209215	155.263
0.210422	157.959
0.211637	160.68
0.212859	163.43
0.214088	166.21
0.215324	169.024
0.216567	171.876
0.217817	174.768
0.219075	177.705
0.220339	180.689
0.221611	183.725
0.222891	186.816
0.224177	189.966
0.225472	193.178
0.226773	196.457
0.228082	199.806
0.229399	203.23
0.230724	206.733
0.232055	210.317
0.233395	213.988
0.234743	217.749
0.236098	221.605
0.237461	225.558
0.238832	229.612
0.24021	233.771
0.241597	238.039
0.242992	242.417
0.244395	246.91
0.245806	251.52
0.247225	256.25
0.248652	261.1
0.250087	266.074
0.251531	271.172
0.252983	276.396
0.254444	281.746
0.255913	287.221
0.25739	292.823
0.258876	298.55
0.260371	304.401
0.261874	310.374
0.263385	316.466
0.264906	322.675
0.266435	328.998
0.267973	335.43
0.269521	341.967
0.271076	348.604
0.272641	355.335
0.274215	362.155
0.275798	369.057
0.277391	376.033
0.278992	383.076
0.280603	390.178
0.282223	397.329
0.283852	404.52
0.285491	411.74
0.287139	418.979
0.288796	426.226
0.290464	433.467
0.292141	440.689
0.293827	447.878
0.295523	455.019
0.297229	462.094
0.298945	469.087
0.300671	475.978
0.302407	482.747
0.304153	489.372
0.305909	495.83
0.307675	502.095
0.309451	508.141
0.311237	513.942
0.313034	519.467
0.314841	524.686
0.316659	529.569
0.318487	534.084
0.320326	538.198
0.322175	541.445
0.324035	540.024
0.325906	538.081
0.327787	535.603
0.329679	532.585
0.331583	529.02
0.333497	524.91
0.335422	520.259
0.337359	515.076
0.339306	509.375
0.341265	503.173
0.343235	496.493
0.345217	489.363
0.34721	481.813
0.349214	473.88
0.35123	465.6
0.353258	457.014
0.355297	448.165
0.357348	439.097
0.359411	429.854
0.361486	420.481
0.363573	411.021
0.365672	401.517
0.367783	392.01
0.369906	382.539
0.372042	373.138
0.37419	363.84
0.37635	354.675
0.378523	345.669
0.380708	336.844
0.382906	328.218
0.385116	319.807
0.38734	311.622
0.389576	303.674
0.391825	295.967
0.394087	288.504
0.396362	281.287
0.39865	274.314
0.400951	268.183
0.403266	263.115
0.405594	258.236
0.407936	253.542
0.410291	249.025
0.412659	244.681
0.415042	240.5
0.417438	236.478
0.419848	232.607
0.422272	228.881
0.424709	225.295
0.427161	221.842
0.429627	218.517
0.432108	215.317
0.434602	212.237
0.437111	209.273
0.439635	206.423
0.442173	203.683
0.444725	201.05
0.447293	198.522
0.449875	196.097
0.452472	193.773
0.455084	191.547
0.457712	189.418
0.460354	187.383
0.463012	185.44
0.465685	183.587
0.468373	181.823
0.471077	180.145
0.473796	178.551
0.476532	177.039
0.479283	175.606
0.48205	174.251
0.484833	172.972
0.487632	171.767
0.490447	170.633
0.493278	169.569
0.496126	168.573
0.49899	167.643
0.501871	168.003
0.504768	169.096
0.507682	170.258
0.510613	171.488
0.513561	172.785
0.516526	174.148
0.519508	175.577
0.522507	177.07
0.525523	178.627
0.528557	180.249
0.531608	181.72
0.534677	183.054
0.537764	184.44
0.540869	185.88
0.543991	187.371
0.547132	188.915
0.55029	190.511
0.553467	192.161
0.556662	193.863
0.559876	195.619
0.563108	197.429
0.566359	199.295
0.569629	201.216
0.572917	203.195
0.576225	205.232
0.579551	207.329
0.582897	209.488
0.586262	211.71
0.589647	213.997
0.593051	216.352
0.596474	218.777
0.599918	221.274
0.603381	221.706
0.606865	222.157
0.610368	222.681
0.613892	223.283
0.617436	223.965
0.621	224.732
0.624585	225.588
0.628191	226.538
0.631818	227.585
0.635465	228.735
0.639134	229.992
0.642824	231.361
0.646535	232.847
0.650267	234.455
0.654021	236.188
0.657797	238.052
0.661594	240.05
0.665414	242.183
0.669255	244.454
0.673119	246.863
0.677005	249.407
0.680913	252.083
0.684844	254.884
0.688798	257.798
0.692774	260.812
0.696774	263.905
0.700796	267.053
0.704842	270.225
0.708911	273.385
0.713004	276.487
0.71712	279.484
0.72126	282.317
0.725424	284.928
0.729612	287.251
0.733824	289.222
0.73806	290.777
0.742321	291.857
0.746607	292.412
0.750917	292.403
0.755252	291.802
0.759612	290.602
0.763997	288.809
0.768408	286.448
0.772844	283.561
0.777306	280.203
0.781793	276.441
0.786306	272.347
0.790846	268
0.795411	263.476
0.800003	258.851
0.804622	254.193
0.809267	249.563
0.813939	245.014
0.818638	240.591
0.823364	236.329
0.828117	232.255
0.832898	228.389
0.837706	224.746
0.842543	221.334
0.847407	218.157
0.852299	215.502
0.857219	213.404
0.862168	211.536
0.867145	209.891
0.872151	208.464
0.877186	207.248
0.88225	206.234
0.887344	205.417
0.892466	204.787
0.897619	204.339
0.902801	204.065
0.908013	203.957
0.913255	204.009
0.918527	204.213
0.92383	204.561
0.929163	205.045
0.934527	205.656
0.939922	206.385
0.945348	207.219
0.950806	208.146
0.956295	209.151
0.961816	210.216
0.967368	211.321
0.972953	212.442
0.97857	213.553
0.984219	214.625
0.989901	215.625
0.995616	216.519
1.00136	217.271
1.00714	217.847
1.01296	218.213
1.01881	218.34
1.02469	218.205
1.0306	217.791
1.03655	217.091
1.04254	216.107
1.04856	214.851
1.05461	213.343
1.0607	211.609
1.06682	209.684
1.07298	207.601
1.07917	205.398
1.08541	203.112
1.09167	200.775
1.09797	198.418
1.10431	196.068
1.11069	193.747
1.1171	191.474
1.12355	189.263
1.13003	187.124
1.13656	185.066
1.14312	183.094
1.14972	181.211
1.15636	179.419
1.16303	177.717
1.16975	176.105
1.1765	174.58
1.18329	173.142
1.19012	171.786
1.19699	170.511
1.2039	169.313
1.21085	168.19
1.21784	167.137
1.22488	166.153
1.23195	165.234
1.23906	164.377
1.24621	163.579
1.25341	162.839
1.26064	162.152
1.26792	161.517
1.27524	160.931
1.2826	160.391
1.29001	159.895
1.29745	159.442
1.30494	159.028
1.31248	158.651
1.32005	158.31
1.32768	158.001
1.33534	157.724
1.34305	157.475
1.3508	157.252
1.3586	157.054
1.36644	156.877
1.37433	156.72
1.38227	156.581
1.39025	156.456
1.39827	156.345
1.40634	156.243
1.41446	156.15
1.42263	156.062
1.43084	155.977
1.4391	155.892
1.44741	155.806
1.45577	155.715
1.46417	155.618
1.47262	155.511
1.48113	155.394
1.48968	155.264
1.49828	155.118
1.50693	154.956
1.51563	154.776
1.52438	154.577
1.53318	154.357
1.54203	154.117
1.55093	153.855
1.55988	153.572
1.56889	153.268
1.57794	152.943
1.58705	152.599
1.59622	152.236
1.60543	151.855
1.6147	151.458
1.62402	151.047
1.6334	150.623
1.64283	150.189
1.65231	149.746
1.66185	149.296
1.67144	148.841
1.68109	148.383
1.6908	147.924
1.70056	147.466
1.71038	147.01
1.72025	146.557
1.73018	146.11
1.74017	145.668
1.75022	145.235
1.76032	144.809
1.77048	144.393
1.7807	143.986
1.79098	143.59
1.80132	143.205
1.81172	142.83
1.82218	142.468
1.8327	142.117
1.84328	141.777
1.85392	141.449
1.86463	141.133
1.87539	140.828
1.88622	140.535
1.89711	140.252
1.90806	139.98
1.91907	139.719
1.93015	139.468
1.9413	139.228
1.9525	138.996
1.96378	138.774
1.97511	138.562
1.98651	138.357
1.99798	138.161
2.00952	137.973
2.02112	137.793
2.03279	137.62
2.04452	137.454
2.05633	137.294
2.0682	137.141
2.08014	136.994
2.09215	136.852
2.10422	136.716
2.11637	136.586
2.12859	136.46
2.14088	136.339
2.15324	136.222
2.16567	136.11
2.17817	136.001
2.19075	135.896
2.20339	135.795
2.21611	135.697
2.22891	135.602
2.24177	135.51
2.25472	135.421
2.26773	135.335
2.28082	135.25
2.29399	135.169
2.30724	135.089
2.32055	135.011
2.33395	134.936
2.34743	134.862
2.36098	134.789
2.37461	134.718
2.38832	134.649
2.4021	134.581
2.41597	134.514
2.42992	134.448
2.44395	134.383
2.45806	134.319
2.47225	134.256
2.48652	134.194
2.50087	134.132
2.51531	134.071
2.52983	134.011
2.54444	133.951
2.55913	133.891
2.5739	133.832
2.58876	133.773
2.60371	133.715
2.61874	133.657
2.63385	133.599
2.64906	133.541
2.66435	133.483
2.67973	133.425
2.69521	133.368
2.71076	133.31
2.72641	133.252
2.74215	133.195
2.75798	133.137
2.77391	133.079
2.78992	133.021
2.80603	132.962
2.82223	132.904
2.83852	132.845
2.85491	132.787
2.87139	132.728
2.88796	132.668
2.90464	132.609
2.92141	132.549
2.93827	132.489
2.95523	132.429
2.97229	132.368
2.98945	132.307
3.00671	132.246
3.02407	132.184
3.04153	132.122
3.05909	132.06
3.07675	131.997
3.09451	131.934
3.11237	131.871
3.13034	131.807
3.14841	131.743
3.16659	131.679
3.18487	131.614
3.20326	131.549
3.22175	131.483
3.24035	131.418
3.25906	131.352
3.27787	131.285
3.29679	131.218
3.31583	131.151
3.33497	131.084
3.35422	131.016
3.37359	130.948
3.39306	130.879
3.41265	130.811
3.43235	130.742
3.45217	130.672
3.4721	130.603
3.49214	130.533
3.5123	130.463
3.53258	130.392
3.55297	130.321
3.57348	130.25
3.59411	130.179
3.61486	130.108
3.63573	130.036
3.65672	129.964
3.67783	129.892
3.69906	129.819
3.72042	129.747
3.7419	129.674
3.7635	129.601
3.78523	129.528
3.80708	129.454
3.82906	129.381
3.85116	129.307
3.8734	129.233
3.89576	129.159
3.91825	129.085
3.94087	129.011
3.96362	128.937
3.9865	128.862
4.00951	128.788
4.03266	128.713
4.05594	128.639
4.07936	128.564
4.10291	128.489
4.12659	128.414
4.15042	128.339
4.17438	128.264
4.19848	128.189
4.22272	128.114
4.24709	128.039
4.27161	127.964
4.29627	127.889
4.32108	127.814
4.34602	127.739
4.37111	127.664
4.39635	127.589
4.42173	127.515
4.44725	127.44
4.47293	127.365
4.49875	127.29
4.52472	127.216
4.55084	127.141
4.57712	127.067
4.60354	126.992
4.63012	126.918
4.65685	126.844
4.68373	126.77
4.71077	126.696
4.73796	126.622
4.76532	126.549
4.79283	126.475
4.8205	126.402
4.84833	126.329
4.87632	126.255
4.90447	126.183
4.93278	126.11
4.96126	126.037
4.9899	125.965
5.01871	125.893
5.04768	125.821
5.07682	125.749
5.10613	125.677
5.13561	125.606
5.16526	125.535
5.19508	125.464
5.22507	125.393
5.25523	125.322
5.28557	125.252
5.31608	125.182
5.34677	125.112
5.37764	125.042
5.40869	124.973
5.43991	124.903
5.47132	124.834
5.5029	124.766
5.53467	124.697
5.56662	124.629
5.59876	124.561
5.63108	124.493
5.66359	124.426
5.69629	124.359
5.72917	124.292
5.76225	124.225
5.79551	124.159
5.82897	124.093
5.86262	124.027
5.89647	123.961
5.93051	123.896
5.96474	123.831
5.99918	123.766
6.03381	123.702
6.06865	123.637
6.10368	123.573
6.13892	123.51
6.17436	123.446
6.21	123.383
6.24585	123.321
6.28191	123.258
6.31818	123.196
6.35465	123.134
6.39134	123.072
6.42824	123.011
6.46535	122.95
6.50267	122.889
6.54021	122.829
6.57797	122.768
6.61594	122.709
6.65414	122.649
6.69255	122.59
6.73119	122.531
6.77005	122.472
6.80913	122.413
6.84844	122.355
6.88798	122.297
6.92774	122.24
6.96774	122.183
7.00796	122.126
7.04842	122.069
7.08911	122.013
7.13004	121.956
7.1712	121.901
7.2126	121.845
7.25424	121.79
7.29612	121.735
7.33824	121.68
7.3806	121.626
7.42321	121.572
7.46607	121.518
7.50917	121.464
7.55252	121.411
7.59612	121.358
7.63997	121.305
7.68408	121.253
7.72844	121.201
7.77306	121.149
7.81793	121.097
7.86306	121.046
7.90846	120.995
7.95411	120.944
8.00003	120.894
8.04622	120.843
8.09267	120.793
8.13939	120.744
8.18638	120.694
8.23364	120.645
8.28117	120.596
8.32898	120.548
8.37706	120.499
8.42543	120.451
8.47407	120.403
8.52299	120.356
8.57219	120.309
8.62168	120.262
8.67145	120.215
8.72151	120.168
8.77186	120.122
8.8225	120.076
8.87344	120.03
8.92466	119.985
8.97619	119.94
9.02801	119.895
9.08013	119.85
9.13255	119.806
9.18527	119.761
9.2383	119.717
9.29163	119.674
9.34527	119.63
9.39922	119.587
9.45348	119.544
9.50806	119.501
9.56295	119.459
9.61816	119.416
9.67368	119.374
9.72953	119.333
9.7857	119.291
9.84219	119.25
9.89901	119.209
9.95616	119.168
10.0136	118.501
10.0714	118.468
10.1296	118.435
10.1881	118.402
10.2469	118.369
10.306	118.336
10.3655	118.304
10.4254	118.272
10.4856	118.239
10.5461	118.207
10.607	118.176
10.6682	118.144
10.7298	118.112
10.7917	118.081
10.8541	118.05
10.9167	118.019
10.9797	117.988
11.0431	117.957
11.1069	117.926
11.171	117.896
11.2355	117.865
11.3003	117.835
11.3656	117.805
11.4312	117.775
11.4972	117.745
11.5636	117.716
11.6303	117.686
11.6975	117.657
11.765	117.628
11.8329	117.599
11.9012	117.57
11.9699	117.541
12.039	117.513
12.1085	117.484
12.1784	117.456
12.2488	117.428
12.3195	117.4
12.3906	117.372
12.4621	117.345
12.5341	117.317
12.6064	117.29
12.6792	117.262
12.7524	117.235
12.826	117.208
12.9001	117.182
12.9745	117.155
13.0494	117.129
13.1248	117.102
13.2005	117.076
13.2768	117.05
13.3534	117.024
13.4305	116.998
13.508	116.973
13.586	116.947
13.6644	116.922
13.7433	116.897
13.8227	116.872
13.9025	116.847
13.9827	116.822
14.0634	116.798
14.1446	116.773
14.2263	116.749
14.3084	116.725
14.391	116.701
14.4741	116.677
14.5577	116.653
14.6417	116.63
14.7262	116.606
14.8113	116.583
14.8968	116.56
14.9828	116.537
15.0693	116.514
15.1563	116.491
15.2438	116.469
15.3318	116.447
15.4203	116.424
15.5093	116.402
15.5988	116.38
15.6889	116.358
15.7794	116.337
15.8705	116.315
15.9622	116.294
16.0543	116.273
16.147	116.251
16.2402	116.23
16.334	116.21
16.4283	116.189
16.5231	116.168
16.6185	116.148
16.7144	116.128
16.8109	116.108
16.908	116.088
17.0056	116.068
17.1038	116.048
17.2025	116.029
17.3018	116.009
17.4017	115.99
17.5022	115.971
17.6032	115.952
17.7048	115.933
17.807	115.914
17.9098	115.896
18.0132	115.877
18.1172	115.859
18.2218	115.841
18.327	115.823
18.4328	115.805
18.5392	115.787
18.6463	115.77
18.7539	115.752
18.8622	115.735
18.9711	115.718
19.0806	115.701
19.1907	115.684
19.3015	115.667
19.413	115.651
19.525	115.634
19.6378	115.618
19.7511	115.602
19.8651	115.586
19.9798	115.57
20.0952	115.554
20.2112	115.538
20.3279	115.523
20.4452	115.508
20.5633	115.492
20.682	115.477
20.8014	115.462
20.9215	115.448
21.0422	115.433
21.1637	115.418
21.2859	115.404
21.4088	115.39
21.5324	115.376
21.6567	115.362
21.7817	115.348
21.9075	115.334
22.0339	115.32
22.1611	115.307
22.2891	115.294
22.4177	115.28
22.5472	115.267
22.6773	115.255
22.8082	115.242
22.9399	115.229
23.0724	115.217
23.2055	115.204
23.3395	115.192
23.4743	115.18
23.6098	115.168
23.7461	115.156
23.8832	115.144
24.021	115.133
24.1597	115.121
24.2992	115.11
24.4395	115.099
24.5806	115.088
24.7225	115.077
24.8652	115.066
25.0087	115.056
25.1531	115.045
25.2983	115.035
25.4444	115.024
25.5913	115.014
25.739	115.004
25.8876	114.994
26.0371	114.985
26.1874	114.975
26.3385	114.966
26.4906	114.956
26.6435	114.947
26.7973	114.938
26.9521	114.929
27.1076	114.92
27.2641	114.912
27.4215	114.903
27.5798	114.895
27.7391	114.886
27.8992	114.878
28.0603	114.87
28.2223	114.862
28.3852	114.855
28.5491	114.847
28.7139	114.84
28.8796	114.832
29.0464	114.825
29.2141	114.818
29.3827	114.811
29.5523	114.804
29.7229	114.797
29.8945	114.791
30.0671	114.784
30.2407	114.778
30.4153	114.771
30.5909	114.765
30.7675	114.759
30.9451	114.754
31.1237	114.748
31.3034	114.742
31.4841	114.737
31.6659	114.731
31.8487	114.726
32.0326	114.721
32.2175	114.716
32.4035	114.711
32.5906	114.707
32.7787	114.702
32.9679	114.698
33.1583	114.693
33.3497	114.689
33.5422	114.685
33.7359	114.681
33.9306	114.677
34.1265	114.673
34.3235	114.67
34.5217	114.666
34.721	114.663
34.9214	114.66
35.123	114.657
35.3258	114.654
35.5297	114.651
35.7348	114.648
35.9411	114.646
36.1486	114.643
36.3573	114.641
36.5672	114.639
36.7783	114.636
36.9906	114.634
37.2042	114.633
37.419	114.631
37.635	114.629
37.8523	114.628
38.0708	114.626
38.2906	114.625
38.5116	114.624
38.734	114.623
38.9576	114.622
39.1825	114.621
39.4087	114.621
39.6362	114.62
39.865	114.62
40.0951	114.619
40.3266	114.619
40.5594	114.619
40.7936	114.619
41.0291	114.619
41.2659	114.62
41.5042	114.62
41.7438	114.621
41.9848	114.621
42.2272	114.622
42.4709	114.623
42.7161	114.624
42.9627	114.625
43.2108	114.626
43.4602	114.628
43.7111	114.629
43.9635	114.631
44.2173	114.633
44.4725	114.635
44.7293	114.637
44.9875	114.639
45.2472	114.641
45.5084	114.643
45.7712	114.646
46.0354	114.648
46.3012	114.651
46.5685	114.654
46.8373	114.656
47.1077	114.66
47.3796	114.663
47.6532	114.666
47.9283	114.669
48.205	114.673
48.4833	114.676
48.7632	114.68
49.0447	114.684
49.3278	114.688
49.6126	114.692
49.899	114.696
50.1871	114.7
50.4768	114.705
50.7682	114.709
51.0613	114.714
51.3561	114.719
51.6526	114.724
51.9508	114.729
52.2507	114.734
52.5523	114.739
52.8557	114.744
53.1608	114.75
53.4677	114.755
53.7764	114.761
54.0869	114.767
54.3991	114.772
54.7132	114.778
55.029	114.785
55.3467	114.791
55.6662	114.797
55.9876	114.804
56.3108	114.81
56.6359	114.817
56.9629	114.824
57.2917	114.83
57.6225	114.837
57.9551	114.845
58.2897	114.852
58.6262	114.859
58.9647	114.867
59.3051	114.874
59.6474	114.882
59.9918	114.89
60.3381	114.897
60.6865	114.905
61.0368	114.914
61.3892	114.922
61.7436	114.93
62.1	114.939
62.4585	114.947
62.8191	114.956
63.1818	114.965
63.5465	114.973
63.9134	114.982
64.2824	114.992
64.6535	115.001
65.0267	115.01
65.4021	115.019
65.7797	115.029
66.1594	115.039
66.5414	115.048
66.9255	115.058
67.3119	115.068
67.7005	115.078
68.0913	115.089
68.4844	115.099
68.8798	115.109
69.2774	115.12
69.6774	115.13
70.0796	115.141
70.4842	115.152
70.8911	115.163
71.3004	115.174
71.712	115.185
72.126	115.196
72.5424	115.208
72.9612	115.219
73.3824	115.231
73.806	115.242
74.2321	115.254
74.6607	115.266
75.0917	115.278
75.5252	115.29
75.9612	115.302
76.3997	115.315
76.8408	115.327
77.2844	115.339
77.7306	115.352
78.1793	115.365
78.6306	115.378
79.0846	115.391
79.5411	115.404
80.0003	115.417
80.4622	115.43
80.9267	115.443
81.3939	115.457
81.8638	115.47
82.3364	115.484
82.8117	115.498
83.2898	115.512
83.7706	115.526
84.2543	115.54
84.7407	115.554
85.2299	115.568
85.7219	115.583
86.2168	115.597
86.7145	115.612
87.2151	115.626
87.7186	115.641
88.225	115.656
88.7344	115.671
89.2466	115.686
89.7619	115.701
90.2801	115.717
90.8013	115.732
91.3255	115.748
91.8527	115.763
92.383	115.779
92.9163	115.795
93.4527	115.811
93.9922	115.827
94.5348	115.843
95.0806	115.859
95.6295	115.875
96.1816	115.892
96.7368	115.908
97.2953	115.925
97.857	115.942
98.4219	115.958
98.9901	115.975
99.5616	115.992
100.136	116.009
100.714	116.027
101.296	116.044
101.881	116.061
102.469	116.079
103.06	116.096
103.655	116.114
104.254	116.132
104.856	116.15
105.461	116.168
106.07	116.186
106.682	116.204
107.298	116.222
107.917	116.241
108.541	116.259
109.167	116.278
109.797	116.297
110.431	116.315
111.069	116.334
111.71	116.353
112.355	116.372
113.003	116.392
113.656	116.411
114.312	116.43
114.972	116.45
115.636	116.469
116.303	116.489
116.975	116.509
117.65	116.529
118.329	116.548
119.012	116.569
119.699	116.589
120.39	116.609
121.085	116.629
121.784	116.65
122.488	116.67
123.195	116.691
123.906	116.712
124.621	116.732
125.341	116.753
126.064	116.774
126.792	116.795
127.524	116.817
128.26	116.838
129.001	116.859
129.745	116.881
130.494	116.902
131.248	116.924
132.005	116.946
132.768	116.967
133.534	116.989
134.305	117.011
135.08	117.034
135.86	117.056
136.644	117.078
137.433	117.101
138.227	117.123
139.025	117.146
139.827	117.168
140.634	117.191
141.446	117.214
142.263	117.237
143.084	117.26
143.91	117.283
144.741	117.306
145.577	117.33
146.417	117.353
147.262	117.377
148.113	117.4
148.968	117.424
149.828	117.448
150.693	117.472
151.563	117.496
152.438	117.52
153.318	117.544
154.203	117.568
155.093	117.593
155.988	117.617
156.889	117.642
157.794	117.666
158.705	117.691
159.622	117.716
160.543	117.741
161.47	117.766
162.402	117.791
163.34	117.816
164.283	117.841
165.231	117.867
166.185	117.892
167.144	117.918
168.109	117.943
169.08	117.969
170.056	117.995
171.038	118.021
172.025	118.047
173.018	118.073
174.017	118.099
175.022	118.125
176.032	118.151
177.048	118.178
178.07	118.204
179.098	118.231
180.132	118.258
181.172	118.284
182.218	118.311
183.27	118.338
184.328	118.365
185.392	118.392
186.463	118.42
